   2   2   0   0
  0.3953030E+02  0.2467000E-09  0.2467000E-09  0.1500000E-08  0.5000000E-15
  1.000000000000000E-004
  CAR 
 Dielectric                              
     87.55130594    -26.96248064 4000     -2.25319378      1.00000000
    -26.962  0.0000E+00  0.0000E+00
    -26.934  0.0000E+00  0.0000E+00
    -26.905  0.0000E+00  0.0000E+00
    -26.877  0.0000E+00  0.0000E+00
    -26.848  0.0000E+00  0.0000E+00
    -26.819  0.0000E+00  0.0000E+00
    -26.791  0.0000E+00  0.0000E+00
    -26.762  0.0000E+00  0.0000E+00
    -26.733  0.0000E+00  0.0000E+00
    -26.705  0.0000E+00  0.0000E+00
    -26.676  0.0000E+00  0.0000E+00
    -26.647  0.0000E+00  0.0000E+00
    -26.619  0.0000E+00  0.0000E+00
    -26.590  0.0000E+00  0.0000E+00
    -26.562  0.0000E+00  0.0000E+00
    -26.533  0.0000E+00  0.0000E+00
    -26.504  0.0000E+00  0.0000E+00
    -26.476  0.0000E+00  0.0000E+00
    -26.447  0.0000E+00  0.0000E+00
    -26.418  0.0000E+00  0.0000E+00
    -26.390  0.0000E+00  0.0000E+00
    -26.361  0.0000E+00  0.0000E+00
    -26.332  0.0000E+00  0.0000E+00
    -26.304  0.0000E+00  0.0000E+00
    -26.275  0.0000E+00  0.0000E+00
    -26.247  0.0000E+00  0.0000E+00
    -26.218  0.0000E+00  0.0000E+00
    -26.189  0.0000E+00  0.0000E+00
    -26.161  0.0000E+00  0.0000E+00
    -26.132  0.0000E+00  0.0000E+00
    -26.103  0.0000E+00  0.0000E+00
    -26.075  0.0000E+00  0.0000E+00
    -26.046  0.0000E+00  0.0000E+00
    -26.018  0.0000E+00  0.0000E+00
    -25.989  0.0000E+00  0.0000E+00
    -25.960  0.0000E+00  0.0000E+00
    -25.932  0.0000E+00  0.0000E+00
    -25.903  0.0000E+00  0.0000E+00
    -25.874  0.0000E+00  0.0000E+00
    -25.846  0.0000E+00  0.0000E+00
    -25.817  0.0000E+00  0.0000E+00
    -25.788  0.0000E+00  0.0000E+00
    -25.760  0.0000E+00  0.0000E+00
    -25.731  0.0000E+00  0.0000E+00
    -25.703  0.0000E+00  0.0000E+00
    -25.674  0.0000E+00  0.0000E+00
    -25.645  0.0000E+00  0.0000E+00
    -25.617  0.0000E+00  0.0000E+00
    -25.588  0.0000E+00  0.0000E+00
    -25.559  0.0000E+00  0.0000E+00
    -25.531  0.0000E+00  0.0000E+00
    -25.502  0.0000E+00  0.0000E+00
    -25.473  0.0000E+00  0.0000E+00
    -25.445  0.0000E+00  0.0000E+00
    -25.416  0.0000E+00  0.0000E+00
    -25.388  0.0000E+00  0.0000E+00
    -25.359  0.0000E+00  0.0000E+00
    -25.330  0.0000E+00  0.0000E+00
    -25.302  0.0000E+00  0.0000E+00
    -25.273  0.0000E+00  0.0000E+00
    -25.244  0.0000E+00  0.0000E+00
    -25.216  0.0000E+00  0.0000E+00
    -25.187  0.0000E+00  0.0000E+00
    -25.158  0.0000E+00  0.0000E+00
    -25.130  0.0000E+00  0.0000E+00
    -25.101  0.0000E+00  0.0000E+00
    -25.073  0.0000E+00  0.0000E+00
    -25.044  0.0000E+00  0.0000E+00
    -25.015  0.0000E+00  0.0000E+00
    -24.987  0.0000E+00  0.0000E+00
    -24.958  0.0000E+00  0.0000E+00
    -24.929  0.0000E+00  0.0000E+00
    -24.901  0.0000E+00  0.0000E+00
    -24.872  0.0000E+00  0.0000E+00
    -24.843  0.0000E+00  0.0000E+00
    -24.815  0.0000E+00  0.0000E+00
    -24.786  0.0000E+00  0.0000E+00
    -24.758  0.0000E+00  0.0000E+00
    -24.729  0.0000E+00  0.0000E+00
    -24.700  0.0000E+00  0.0000E+00
    -24.672  0.0000E+00  0.0000E+00
    -24.643  0.0000E+00  0.0000E+00
    -24.614  0.0000E+00  0.0000E+00
    -24.586  0.0000E+00  0.0000E+00
    -24.557  0.0000E+00  0.0000E+00
    -24.528  0.0000E+00  0.0000E+00
    -24.500  0.0000E+00  0.0000E+00
    -24.471  0.0000E+00  0.0000E+00
    -24.443  0.0000E+00  0.0000E+00
    -24.414  0.0000E+00  0.0000E+00
    -24.385  0.0000E+00  0.0000E+00
    -24.357  0.0000E+00  0.0000E+00
    -24.328  0.0000E+00  0.0000E+00
    -24.299  0.0000E+00  0.0000E+00
    -24.271  0.0000E+00  0.0000E+00
    -24.242  0.0000E+00  0.0000E+00
    -24.213  0.0000E+00  0.0000E+00
    -24.185  0.0000E+00  0.0000E+00
    -24.156  0.0000E+00  0.0000E+00
    -24.128  0.0000E+00  0.0000E+00
    -24.099  0.0000E+00  0.0000E+00
    -24.070  0.0000E+00  0.0000E+00
    -24.042  0.0000E+00  0.0000E+00
    -24.013  0.0000E+00  0.0000E+00
    -23.984  0.0000E+00  0.0000E+00
    -23.956  0.0000E+00  0.0000E+00
    -23.927  0.0000E+00  0.0000E+00
    -23.898  0.0000E+00  0.0000E+00
    -23.870  0.0000E+00  0.0000E+00
    -23.841  0.0000E+00  0.0000E+00
    -23.813  0.0000E+00  0.0000E+00
    -23.784  0.0000E+00  0.0000E+00
    -23.755  0.0000E+00  0.0000E+00
    -23.727  0.0000E+00  0.0000E+00
    -23.698  0.0000E+00  0.0000E+00
    -23.669  0.0000E+00  0.0000E+00
    -23.641  0.0000E+00  0.0000E+00
    -23.612  0.0000E+00  0.0000E+00
    -23.583  0.0000E+00  0.0000E+00
    -23.555  0.0000E+00  0.0000E+00
    -23.526  0.0000E+00  0.0000E+00
    -23.498  0.0000E+00  0.0000E+00
    -23.469  0.0000E+00  0.0000E+00
    -23.440  0.0000E+00  0.0000E+00
    -23.412  0.0000E+00  0.0000E+00
    -23.383  0.0000E+00  0.0000E+00
    -23.354  0.0000E+00  0.0000E+00
    -23.326  0.0000E+00  0.0000E+00
    -23.297  0.0000E+00  0.0000E+00
    -23.268  0.0000E+00  0.0000E+00
    -23.240  0.0000E+00  0.0000E+00
    -23.211  0.0000E+00  0.0000E+00
    -23.183  0.0000E+00  0.0000E+00
    -23.154  0.0000E+00  0.0000E+00
    -23.125  0.0000E+00  0.0000E+00
    -23.097  0.0000E+00  0.0000E+00
    -23.068  0.0000E+00  0.0000E+00
    -23.039  0.0000E+00  0.0000E+00
    -23.011  0.0000E+00  0.0000E+00
    -22.982  0.0000E+00  0.0000E+00
    -22.953  0.0000E+00  0.0000E+00
    -22.925  0.0000E+00  0.0000E+00
    -22.896  0.0000E+00  0.0000E+00
    -22.868  0.0000E+00  0.0000E+00
    -22.839  0.0000E+00  0.0000E+00
    -22.810  0.0000E+00  0.0000E+00
    -22.782  0.0000E+00  0.0000E+00
    -22.753  0.0000E+00  0.0000E+00
    -22.724  0.0000E+00  0.0000E+00
    -22.696  0.0000E+00  0.0000E+00
    -22.667  0.0000E+00  0.0000E+00
    -22.639  0.0000E+00  0.0000E+00
    -22.610  0.0000E+00  0.0000E+00
    -22.581  0.0000E+00  0.0000E+00
    -22.553  0.0000E+00  0.0000E+00
    -22.524  0.0000E+00  0.0000E+00
    -22.495  0.0000E+00  0.0000E+00
    -22.467  0.0000E+00  0.0000E+00
    -22.438  0.0000E+00  0.0000E+00
    -22.409  0.0000E+00  0.0000E+00
    -22.381  0.0000E+00  0.0000E+00
    -22.352  0.0000E+00  0.0000E+00
    -22.324  0.0000E+00  0.0000E+00
    -22.295  0.0000E+00  0.0000E+00
    -22.266  0.0000E+00  0.0000E+00
    -22.238  0.0000E+00  0.0000E+00
    -22.209  0.0000E+00  0.0000E+00
    -22.180  0.0000E+00  0.0000E+00
    -22.152  0.0000E+00  0.0000E+00
    -22.123  0.0000E+00  0.0000E+00
    -22.094  0.0000E+00  0.0000E+00
    -22.066  0.0000E+00  0.0000E+00
    -22.037  0.0000E+00  0.0000E+00
    -22.009  0.0000E+00  0.0000E+00
    -21.980  0.0000E+00  0.0000E+00
    -21.951  0.0000E+00  0.0000E+00
    -21.923  0.0000E+00  0.0000E+00
    -21.894  0.0000E+00  0.0000E+00
    -21.865  0.0000E+00  0.0000E+00
    -21.837  0.0000E+00  0.0000E+00
    -21.808  0.3571E-14  0.1022E-15
    -21.779  0.1819E-04  0.5208E-06
    -21.751  0.7704E-01  0.2207E-02
    -21.722  0.2997E+00  0.1079E-01
    -21.694  0.3066E+00  0.1957E-01
    -21.665  0.3095E+00  0.2843E-01
    -21.636  0.3044E+00  0.3715E-01
    -21.608  0.3035E+00  0.4584E-01
    -21.579  0.3067E+00  0.5462E-01
    -21.550  0.3060E+00  0.6339E-01
    -21.522  0.3045E+00  0.7211E-01
    -21.493  0.3106E+00  0.8100E-01
    -21.464  0.3173E+00  0.9009E-01
    -21.436  0.3199E+00  0.9925E-01
    -21.407  0.2992E+00  0.1078E+00
    -21.379  0.2855E+00  0.1160E+00
    -21.350  0.3289E+00  0.1254E+00
    -21.321  0.3197E+00  0.1346E+00
    -21.293  0.2769E+00  0.1425E+00
    -21.264  0.3382E+00  0.1522E+00
    -21.235  0.3081E+00  0.1610E+00
    -21.207  0.2859E+00  0.1692E+00
    -21.178  0.3446E+00  0.1791E+00
    -21.149  0.2658E+00  0.1867E+00
    -21.121  0.3481E+00  0.1966E+00
    -21.092  0.2817E+00  0.2047E+00
    -21.064  0.3303E+00  0.2142E+00
    -21.035  0.2951E+00  0.2226E+00
    -21.006  0.3153E+00  0.2316E+00
    -20.978  0.2992E+00  0.2402E+00
    -20.949  0.3130E+00  0.2492E+00
    -20.920  0.3114E+00  0.2581E+00
    -20.892  0.3255E+00  0.2674E+00
    -20.863  0.2857E+00  0.2756E+00
    -20.834  0.3363E+00  0.2852E+00
    -20.806  0.2589E+00  0.2926E+00
    -20.777  0.3705E+00  0.3032E+00
    -20.749  0.2599E+00  0.3107E+00
    -20.720  0.3656E+00  0.3212E+00
    -20.691  0.2571E+00  0.3285E+00
    -20.663  0.3439E+00  0.3384E+00
    -20.634  0.3236E+00  0.3476E+00
    -20.605  0.2662E+00  0.3553E+00
    -20.577  0.3583E+00  0.3655E+00
    -20.548  0.2671E+00  0.3732E+00
    -20.519  0.3686E+00  0.3837E+00
    -20.491  0.2731E+00  0.3915E+00
    -20.462  0.2874E+00  0.3998E+00
    -20.434  0.3783E+00  0.4106E+00
    -20.405  0.2379E+00  0.4174E+00
    -20.376  0.3638E+00  0.4278E+00
    -20.348  0.3215E+00  0.4370E+00
    -20.319  0.2310E+00  0.4437E+00
    -20.290  0.4067E+00  0.4553E+00
    -20.262  0.2829E+00  0.4634E+00
    -20.233  0.2629E+00  0.4709E+00
    -20.204  0.4031E+00  0.4825E+00
    -20.176  0.2534E+00  0.4897E+00
    -20.147  0.3169E+00  0.4988E+00
    -20.119  0.3655E+00  0.5093E+00
    -20.090  0.2391E+00  0.5161E+00
    -20.061  0.3549E+00  0.5263E+00
    -20.033  0.3171E+00  0.5354E+00
    -20.004  0.2609E+00  0.5428E+00
    -19.975  0.3650E+00  0.5533E+00
    -19.947  0.3156E+00  0.5623E+00
    -19.918  0.2876E+00  0.5706E+00
    -19.889  0.3251E+00  0.5799E+00
    -19.861  0.3589E+00  0.5901E+00
    -19.832  0.2449E+00  0.5972E+00
    -19.804  0.3354E+00  0.6068E+00
    -19.775  0.3518E+00  0.6168E+00
    -19.746  0.2632E+00  0.6244E+00
    -19.718  0.3271E+00  0.6337E+00
    -19.689  0.3554E+00  0.6439E+00
    -19.660  0.2964E+00  0.6524E+00
    -19.632  0.2318E+00  0.6590E+00
    -19.603  0.4337E+00  0.6715E+00
    -19.574  0.2727E+00  0.6793E+00
    -19.546  0.2892E+00  0.6876E+00
    -19.517  0.3631E+00  0.6980E+00
    -19.489  0.3229E+00  0.7072E+00
    -19.460  0.2421E+00  0.7141E+00
    -19.431  0.3703E+00  0.7247E+00
    -19.403  0.3464E+00  0.7347E+00
    -19.374  0.2821E+00  0.7427E+00
    -19.345  0.2397E+00  0.7496E+00
    -19.317  0.4369E+00  0.7621E+00
    -19.288  0.2995E+00  0.7707E+00
    -19.260  0.2620E+00  0.7782E+00
    -19.231  0.3326E+00  0.7877E+00
    -19.202  0.3821E+00  0.7986E+00
    -19.174  0.2702E+00  0.8064E+00
    -19.145  0.2746E+00  0.8142E+00
    -19.116  0.3728E+00  0.8249E+00
    -19.088  0.3533E+00  0.8350E+00
    -19.059  0.2433E+00  0.8420E+00
    -19.030  0.3493E+00  0.8520E+00
    -19.002  0.3351E+00  0.8616E+00
    -18.973  0.3419E+00  0.8714E+00
    -18.945  0.2243E+00  0.8778E+00
    -18.916  0.4070E+00  0.8895E+00
    -18.887  0.3214E+00  0.8987E+00
    -18.859  0.3164E+00  0.9077E+00
    -18.830  0.2289E+00  0.9143E+00
    -18.801  0.4187E+00  0.9263E+00
    -18.773  0.3365E+00  0.9359E+00
    -18.744  0.2599E+00  0.9434E+00
    -18.715  0.3002E+00  0.9520E+00
    -18.687  0.3977E+00  0.9633E+00
    -18.658  0.3422E+00  0.9731E+00
    -18.630  0.2119E+00  0.9792E+00
    -18.601  0.3815E+00  0.9901E+00
    -18.572  0.3747E+00  0.1001E+01
    -18.544  0.2967E+00  0.1009E+01
    -18.515  0.2709E+00  0.1017E+01
    -18.486  0.3469E+00  0.1027E+01
    -18.458  0.3711E+00  0.1038E+01
    -18.429  0.2806E+00  0.1046E+01
    -18.400  0.3183E+00  0.1055E+01
    -18.372  0.2930E+00  0.1063E+01
    -18.343  0.4266E+00  0.1075E+01
    -18.315  0.2968E+00  0.1084E+01
    -18.286  0.2453E+00  0.1091E+01
    -18.257  0.3793E+00  0.1102E+01
    -18.229  0.3622E+00  0.1112E+01
    -18.200  0.3129E+00  0.1121E+01
    -18.171  0.2652E+00  0.1129E+01
    -18.143  0.3549E+00  0.1139E+01
    -18.114  0.3701E+00  0.1150E+01
    -18.085  0.3375E+00  0.1159E+01
    -18.057  0.2817E+00  0.1167E+01
    -18.028  0.2619E+00  0.1175E+01
    -18.000  0.4834E+00  0.1189E+01
    -17.971  0.2602E+00  0.1196E+01
    -17.942  0.3126E+00  0.1205E+01
    -17.914  0.2907E+00  0.1213E+01
    -17.885  0.3828E+00  0.1224E+01
    -17.856  0.3982E+00  0.1236E+01
    -17.828  0.2558E+00  0.1243E+01
    -17.799  0.2799E+00  0.1251E+01
    -17.770  0.4206E+00  0.1263E+01
    -17.742  0.3163E+00  0.1272E+01
    -17.713  0.3437E+00  0.1282E+01
    -17.685  0.2596E+00  0.1289E+01
    -17.656  0.3763E+00  0.1300E+01
    -17.627  0.4068E+00  0.1312E+01
    -17.599  0.2938E+00  0.1320E+01
    -17.570  0.2957E+00  0.1329E+01
    -17.541  0.2916E+00  0.1337E+01
    -17.513  0.4554E+00  0.1350E+01
    -17.484  0.3441E+00  0.1360E+01
    -17.455  0.2989E+00  0.1369E+01
    -17.427  0.2668E+00  0.1376E+01
    -17.398  0.4096E+00  0.1388E+01
    -17.370  0.3873E+00  0.1399E+01
    -17.341  0.3142E+00  0.1408E+01
    -17.312  0.3097E+00  0.1417E+01
    -17.284  0.3121E+00  0.1426E+01
    -17.255  0.4208E+00  0.1438E+01
    -17.226  0.3576E+00  0.1448E+01
    -17.198  0.2893E+00  0.1456E+01
    -17.169  0.3243E+00  0.1466E+01
    -17.140  0.4145E+00  0.1477E+01
    -17.112  0.3667E+00  0.1488E+01
    -17.083  0.3480E+00  0.1498E+01
    -17.055  0.2564E+00  0.1505E+01
    -17.026  0.4187E+00  0.1517E+01
    -16.997  0.4066E+00  0.1529E+01
    -16.969  0.3594E+00  0.1539E+01
    -16.940  0.3354E+00  0.1549E+01
    -16.911  0.2356E+00  0.1556E+01
    -16.883  0.5352E+00  0.1571E+01
    -16.854  0.3598E+00  0.1581E+01
    -16.825  0.3685E+00  0.1592E+01
    -16.797  0.3204E+00  0.1601E+01
    -16.768  0.3501E+00  0.1611E+01
    -16.740  0.4784E+00  0.1625E+01
    -16.711  0.4269E+00  0.1637E+01
    -16.682  0.3344E+00  0.1646E+01
    -16.654  0.3537E+00  0.1657E+01
    -16.625  0.4876E+00  0.1671E+01
    -16.596  0.5025E+00  0.1685E+01
    -16.568  0.4283E+00  0.1697E+01
    -16.539  0.4419E+00  0.1710E+01
    -16.510  0.5490E+00  0.1726E+01
    -16.482  0.6251E+00  0.1743E+01
    -16.453  0.4500E+00  0.1756E+01
    -16.425  0.3888E+00  0.1767E+01
    -16.396  0.3050E+00  0.1776E+01
    -16.367  0.3486E+00  0.1786E+01
    -16.339  0.4694E+00  0.1800E+01
    -16.310  0.2537E+00  0.1807E+01
    -16.281  0.3081E+00  0.1816E+01
    -16.253  0.1780E+00  0.1821E+01
    -16.224  0.3800E+00  0.1832E+01
    -16.195  0.3520E+00  0.1842E+01
    -16.167  0.1570E+00  0.1846E+01
    -16.138  0.2451E+00  0.1853E+01
    -16.110  0.2050E+00  0.1859E+01
    -16.081  0.2993E+00  0.1868E+01
    -16.052  0.2781E+00  0.1876E+01
    -16.024  0.2013E+00  0.1881E+01
    -15.995  0.4350E-01  0.1883E+01
    -15.966  0.2716E+00  0.1891E+01
    -15.938  0.4235E+00  0.1903E+01
    -15.909  0.4768E-01  0.1904E+01
    -15.881  0.4810E-01  0.1905E+01
    -15.852  0.1453E+00  0.1910E+01
    -15.823  0.4559E+00  0.1923E+01
    -15.795  0.5141E-01  0.1924E+01
    -15.766  0.5349E-01  0.1926E+01
    -15.737  0.1116E+00  0.1929E+01
    -15.709  0.3822E+00  0.1940E+01
    -15.680  0.6103E-01  0.1941E+01
    -15.651  0.5716E-01  0.1943E+01
    -15.623  0.9671E-01  0.1946E+01
    -15.594  0.2303E+00  0.1952E+01
    -15.566  0.1433E+00  0.1957E+01
    -15.537  0.5231E-01  0.1958E+01
    -15.508  0.8182E-01  0.1960E+01
    -15.480  0.1299E+00  0.1964E+01
    -15.451  0.3552E+00  0.1974E+01
    -15.422  0.2754E+00  0.1982E+01
    -15.394  0.3213E+00  0.1991E+01
    -15.365  0.2976E+00  0.2000E+01
    -15.336  0.4170E+00  0.2012E+01
    -15.308  0.2574E+00  0.2019E+01
    -15.279  0.3372E+00  0.2029E+01
    -15.251  0.2897E+00  0.2037E+01
    -15.222  0.4180E+00  0.2049E+01
    -15.193  0.2269E+00  0.2056E+01
    -15.165  0.3988E+00  0.2067E+01
    -15.136  0.2678E+00  0.2075E+01
    -15.107  0.4196E+00  0.2087E+01
    -15.079  0.2464E+00  0.2094E+01
    -15.050  0.3659E+00  0.2104E+01
    -15.021  0.3309E+00  0.2114E+01
    -14.993  0.3242E+00  0.2123E+01
    -14.964  0.3500E+00  0.2133E+01
    -14.936  0.2659E+00  0.2141E+01
    -14.907  0.4085E+00  0.2152E+01
    -14.878  0.2859E+00  0.2161E+01
    -14.850  0.3394E+00  0.2170E+01
    -14.821  0.3557E+00  0.2180E+01
    -14.792  0.2945E+00  0.2189E+01
    -14.764  0.4380E+00  0.2201E+01
    -14.735  0.3067E+00  0.2210E+01
    -14.706  0.4334E+00  0.2223E+01
    -14.678  0.4189E+00  0.2235E+01
    -14.649  0.3938E+00  0.2246E+01
    -14.621  0.5525E+00  0.2262E+01
    -14.592  0.6493E+00  0.2280E+01
    -14.563  0.4355E+00  0.2293E+01
    -14.535  0.4938E+00  0.2307E+01
    -14.506  0.4905E+00  0.2321E+01
    -14.477  0.3021E+00  0.2330E+01
    -14.449  0.5039E+00  0.2344E+01
    -14.420  0.4278E+00  0.2356E+01
    -14.391  0.3733E+00  0.2367E+01
    -14.363  0.4042E+00  0.2379E+01
    -14.334  0.4242E+00  0.2391E+01
    -14.306  0.3115E+00  0.2400E+01
    -14.277  0.4241E+00  0.2412E+01
    -14.248  0.3941E+00  0.2423E+01
    -14.220  0.3521E+00  0.2433E+01
    -14.191  0.3419E+00  0.2443E+01
    -14.162  0.4193E+00  0.2455E+01
    -14.134  0.3134E+00  0.2464E+01
    -14.105  0.3377E+00  0.2474E+01
    -14.076  0.3997E+00  0.2485E+01
    -14.048  0.3489E+00  0.2495E+01
    -14.019  0.2605E+00  0.2503E+01
    -13.991  0.4596E+00  0.2516E+01
    -13.962  0.2675E+00  0.2523E+01
    -13.933  0.3809E+00  0.2534E+01
    -13.905  0.2889E+00  0.2543E+01
    -13.876  0.4291E+00  0.2555E+01
    -13.847  0.1955E+00  0.2560E+01
    -13.819  0.4437E+00  0.2573E+01
    -13.790  0.2968E+00  0.2582E+01
    -13.761  0.3019E+00  0.2590E+01
    -13.733  0.3136E+00  0.2599E+01
    -13.704  0.3428E+00  0.2609E+01
    -13.676  0.3600E+00  0.2619E+01
    -13.647  0.2160E+00  0.2626E+01
    -13.618  0.4014E+00  0.2637E+01
    -13.590  0.2734E+00  0.2645E+01
    -13.561  0.2841E+00  0.2653E+01
    -13.532  0.3551E+00  0.2663E+01
    -13.504  0.2792E+00  0.2671E+01
    -13.475  0.3120E+00  0.2680E+01
    -13.446  0.2864E+00  0.2688E+01
    -13.418  0.3360E+00  0.2698E+01
    -13.389  0.2674E+00  0.2706E+01
    -13.361  0.2575E+00  0.2713E+01
    -13.332  0.3813E+00  0.2724E+01
    -13.303  0.2359E+00  0.2731E+01
    -13.275  0.2751E+00  0.2739E+01
    -13.246  0.3410E+00  0.2748E+01
    -13.217  0.2406E+00  0.2755E+01
    -13.189  0.3034E+00  0.2764E+01
    -13.160  0.3010E+00  0.2772E+01
    -13.131  0.2914E+00  0.2781E+01
    -13.103  0.2600E+00  0.2788E+01
    -13.074  0.2282E+00  0.2795E+01
    -13.046  0.4017E+00  0.2806E+01
    -13.017  0.2128E+00  0.2812E+01
    -12.988  0.1978E+00  0.2818E+01
    -12.960  0.3597E+00  0.2828E+01
    -12.931  0.2999E+00  0.2837E+01
    -12.902  0.2216E+00  0.2843E+01
    -12.874  0.2165E+00  0.2849E+01
    -12.845  0.3109E+00  0.2858E+01
    -12.816  0.3239E+00  0.2868E+01
    -12.788  0.1981E+00  0.2873E+01
    -12.759  0.3697E+00  0.2884E+01
    -12.731  0.3829E+00  0.2895E+01
    -12.702  0.3306E+00  0.2904E+01
    -12.673  0.3217E+00  0.2914E+01
    -12.645  0.4333E+00  0.2926E+01
    -12.616  0.2986E+00  0.2935E+01
    -12.587  0.3424E+00  0.2944E+01
    -12.559  0.4602E+00  0.2957E+01
    -12.530  0.2606E+00  0.2965E+01
    -12.501  0.3762E+00  0.2976E+01
    -12.473  0.4041E+00  0.2987E+01
    -12.444  0.3099E+00  0.2996E+01
    -12.416  0.3820E+00  0.3007E+01
    -12.387  0.3391E+00  0.3017E+01
    -12.358  0.4183E+00  0.3029E+01
    -12.330  0.3803E+00  0.3040E+01
    -12.301  0.2307E+00  0.3046E+01
    -12.272  0.4306E+00  0.3059E+01
    -12.244  0.4689E+00  0.3072E+01
    -12.215  0.2325E+00  0.3079E+01
    -12.187  0.3139E+00  0.3088E+01
    -12.158  0.5127E+00  0.3102E+01
    -12.129  0.3290E+00  0.3112E+01
    -12.101  0.3073E+00  0.3121E+01
    -12.072  0.3590E+00  0.3131E+01
    -12.043  0.4431E+00  0.3144E+01
    -12.015  0.3365E+00  0.3153E+01
    -11.986  0.3819E+00  0.3164E+01
    -11.957  0.2971E+00  0.3173E+01
    -11.929  0.4484E+00  0.3186E+01
    -11.900  0.3855E+00  0.3197E+01
    -11.872  0.3320E+00  0.3206E+01
    -11.843  0.3633E+00  0.3216E+01
    -11.814  0.3911E+00  0.3228E+01
    -11.786  0.3256E+00  0.3237E+01
    -11.757  0.4393E+00  0.3250E+01
    -11.728  0.4552E+00  0.3263E+01
    -11.700  0.2152E+00  0.3269E+01
    -11.671  0.2870E+00  0.3277E+01
    -11.642  0.6505E+00  0.3296E+01
    -11.614  0.3263E+00  0.3305E+01
    -11.585  0.2236E+00  0.3311E+01
    -11.557  0.4526E+00  0.3324E+01
    -11.528  0.3894E+00  0.3335E+01
    -11.499  0.4267E+00  0.3348E+01
    -11.471  0.3370E+00  0.3357E+01
    -11.442  0.4080E+00  0.3369E+01
    -11.413  0.3077E+00  0.3378E+01
    -11.385  0.3815E+00  0.3389E+01
    -11.356  0.5253E+00  0.3404E+01
    -11.327  0.3413E+00  0.3414E+01
    -11.299  0.3368E+00  0.3423E+01
