   2   2   0   0
  0.3953030E+02  0.2467000E-09  0.2467000E-09  0.1500000E-08  0.5000000E-15
  1.000000000000000E-004
  CAR 
 Dielectric_function                     
     89.75111144    -29.82259225 1000     -2.32678933      1.00000000
    -29.823  0.0000E+00  0.0000E+00
    -29.703  0.0000E+00  0.0000E+00
    -29.583  0.0000E+00  0.0000E+00
    -29.464  0.0000E+00  0.0000E+00
    -29.344  0.0000E+00  0.0000E+00
    -29.224  0.0000E+00  0.0000E+00
    -29.104  0.0000E+00  0.0000E+00
    -28.985  0.0000E+00  0.0000E+00
    -28.865  0.0000E+00  0.0000E+00
    -28.745  0.0000E+00  0.0000E+00
    -28.626  0.0000E+00  0.0000E+00
    -28.506  0.0000E+00  0.0000E+00
    -28.386  0.0000E+00  0.0000E+00
    -28.267  0.0000E+00  0.0000E+00
    -28.147  0.0000E+00  0.0000E+00
    -28.027  0.0000E+00  0.0000E+00
    -27.907  0.0000E+00  0.0000E+00
    -27.788  0.0000E+00  0.0000E+00
    -27.668  0.0000E+00  0.0000E+00
    -27.548  0.0000E+00  0.0000E+00
    -27.429  0.0000E+00  0.0000E+00
    -27.309  0.0000E+00  0.0000E+00
    -27.189  0.0000E+00  0.0000E+00
    -27.070  0.0000E+00  0.0000E+00
    -26.950  0.0000E+00  0.0000E+00
    -26.830  0.0000E+00  0.0000E+00
    -26.711  0.0000E+00  0.0000E+00
    -26.591  0.0000E+00  0.0000E+00
    -26.471  0.0000E+00  0.0000E+00
    -26.351  0.0000E+00  0.0000E+00
    -26.232  0.0000E+00  0.0000E+00
    -26.112  0.0000E+00  0.0000E+00
    -25.992  0.0000E+00  0.0000E+00
    -25.873  0.0000E+00  0.0000E+00
    -25.753  0.0000E+00  0.0000E+00
    -25.633  0.0000E+00  0.0000E+00
    -25.514  0.0000E+00  0.0000E+00
    -25.394  0.0000E+00  0.0000E+00
    -25.274  0.0000E+00  0.0000E+00
    -25.155  0.0000E+00  0.0000E+00
    -25.035  0.0000E+00  0.0000E+00
    -24.915  0.0000E+00  0.0000E+00
    -24.795  0.0000E+00  0.0000E+00
    -24.676  0.0000E+00  0.0000E+00
    -24.556  0.0000E+00  0.0000E+00
    -24.436  0.3350E-13  0.4010E-14
    -24.317  0.1523E+00  0.1823E-01
    -24.197  0.1842E+00  0.5694E-01
    -24.077  0.2134E+00  0.9349E-01
    -23.958  0.9275E-01  0.1121E+00
    -23.838  0.1841E+00  0.1561E+00
    -23.718  0.3475E+00  0.1977E+00
    -23.599  0.1841E+00  0.2222E+00
    -23.479  0.2892E+00  0.2568E+00
    -23.359  0.1815E+00  0.2990E+00
    -23.239  0.1548E+00  0.3179E+00
    -23.120  0.1841E+00  0.3655E+00
    -23.000  0.1841E+00  0.3875E+00
    -22.880  0.4319E+00  0.4392E+00
    -22.761  0.1841E+00  0.4646E+00
    -22.641  0.1876E+00  0.4871E+00
    -22.521  0.1799E+00  0.5413E+00
    -22.402  0.1831E+00  0.5747E+00
    -22.282  0.1155E-03  0.5749E+00
    -22.162  0.1841E+00  0.6410E+00
    -22.043  0.2622E+00  0.6723E+00
    -21.923  0.1841E+00  0.6961E+00
    -21.803  0.3124E+00  0.7334E+00
    -21.683  0.8943E-04  0.7732E+00
    -21.564  0.6793E-01  0.8034E+00
    -21.444  0.1939E+00  0.8295E+00
    -21.324  0.1841E+00  0.8724E+00
    -21.205  0.1749E-10  0.9164E+00
    -21.085  0.1841E+00  0.9385E+00
    -20.965  0.2923E+00  0.9845E+00
    -20.846  0.1841E+00  0.1027E+01
    -20.726  0.3682E+00  0.1071E+01
    -20.606  0.1803E+00  0.1092E+01
    -20.487  0.1492E+00  0.1111E+01
    -20.367  0.3750E+00  0.1171E+01
    -20.247  0.4117E-04  0.1192E+01
    -20.127  0.1841E+00  0.1236E+01
    -20.008  0.1841E+00  0.1258E+01
    -19.888  0.4130E+00  0.1318E+01
    -19.768  0.3673E+00  0.1368E+01
    -19.649  0.1761E-01  0.1370E+01
    -19.529  0.1841E+00  0.1412E+01
    -19.409  0.3773E+00  0.1457E+01
    -19.290  0.2751E+00  0.1511E+01
    -19.170  0.3682E+00  0.1556E+01
    -19.050  0.1011E+00  0.1568E+01
    -18.930  0.9676E-09  0.1600E+01
    -18.811  0.6449E+00  0.1677E+01
    -18.691  0.4421E+00  0.1741E+01
    -18.571  0.2438E+00  0.1772E+01
    -18.452  0.0000E+00  0.1798E+01
    -18.332  0.5547E-01  0.1805E+01
    -18.212  0.3683E+00  0.1897E+01
    -18.093  0.0000E+00  0.1897E+01
    -17.973  0.5248E-03  0.1897E+01
    -17.853  0.3485E-07  0.1908E+01
    -17.734  0.2762E+00  0.1963E+01
    -17.614  0.0000E+00  0.1963E+01
    -17.494  0.2954E-06  0.1963E+01
    -17.374  0.9206E-01  0.1985E+01
    -17.255  0.4603E+00  0.2051E+01
    -17.135  0.3035E-04  0.2051E+01
    -17.015  0.2762E+00  0.2107E+01
    -16.896  0.1841E+00  0.2129E+01
    -16.776  0.3463E+00  0.2170E+01
    -16.656  0.1841E+00  0.2224E+01
    -16.537  0.4555E+00  0.2279E+01
    -16.417  0.1845E+00  0.2323E+01
    -16.297  0.1917E+00  0.2368E+01
    -16.178  0.0000E+00  0.2411E+01
    -16.058  0.3447E+00  0.2453E+01
    -15.938  0.1841E+00  0.2500E+01
    -15.818  0.3633E+00  0.2543E+01
    -15.699  0.1841E+00  0.2566E+01
    -15.579  0.3683E+00  0.2610E+01
    -15.459  0.1961E+00  0.2633E+01
    -15.340  0.1807E+00  0.2675E+01
    -15.220  0.1818E+00  0.2698E+01
    -15.100  0.1841E+00  0.2742E+01
    -14.981  0.1841E+00  0.2764E+01
    -14.861  0.2159E+00  0.2790E+01
    -14.741  0.1871E+00  0.2830E+01
    -14.622  0.7368E-08  0.2852E+01
    -14.502  0.8609E-02  0.2875E+01
    -14.382  0.1223E+00  0.2911E+01
    -14.262  0.3012E+00  0.2969E+01
    -14.143  0.1302E+00  0.3004E+01
    -14.023  0.9206E-01  0.3021E+01
    -13.903  0.3163E+00  0.3059E+01
    -13.784  0.3664E+00  0.3142E+01
    -13.664  0.1841E+00  0.3164E+01
    -13.544  0.2799E-01  0.3168E+01
    -13.425  0.4066E+00  0.3246E+01
    -13.305  0.2762E+00  0.3297E+01
    -13.185  0.1040E+00  0.3309E+01
    -13.066  0.1921E+00  0.3353E+01
    -12.946  0.1841E+00  0.3396E+01
    -12.826  0.3808E+00  0.3441E+01
    -12.706  0.3681E+00  0.3495E+01
    -12.587  0.4603E+00  0.3550E+01
    -12.467  0.9175E-01  0.3583E+01
    -12.347  0.5735E-08  0.3583E+01
    -12.228  0.4082E+00  0.3654E+01
    -12.108  0.7925E-01  0.3725E+01
    -11.988  0.2245E-04  0.3748E+01
    -11.869  0.1841E+00  0.3792E+01
    -11.749  0.4603E+00  0.3848E+01
    -11.629  0.4585E+00  0.3902E+01
    -11.510  0.4155E+00  0.3952E+01
    -11.390  0.1846E+00  0.3980E+01
    -11.270  0.1863E+00  0.4046E+01
    -11.150  0.1047E+00  0.4080E+01
    -11.031  0.5454E+00  0.4168E+01
    -10.911  0.8727E+00  0.4295E+01
    -10.791  0.4603E+00  0.4367E+01
    -10.672  0.2969E+00  0.4403E+01
    -10.552  0.5152E+00  0.4539E+01
    -10.432  0.5517E+00  0.4610E+01
    -10.313  0.7213E+00  0.4707E+01
    -10.193  0.1841E+00  0.4797E+01
    -10.073  0.7468E+00  0.4920E+01
     -9.953  0.5790E+00  0.5054E+01
     -9.834  0.3519E+00  0.5137E+01
     -9.714  0.6958E+00  0.5266E+01
     -9.594  0.4455E+00  0.5368E+01
     -9.475  0.4608E+00  0.5447E+01
     -9.355  0.4330E+00  0.5532E+01
     -9.235  0.6474E+00  0.5635E+01
     -9.116  0.2069E+00  0.5670E+01
     -8.996  0.5525E+00  0.5778E+01
     -8.876  0.4507E+00  0.5854E+01
     -8.757  0.3777E+00  0.5922E+01
     -8.637  0.3682E+00  0.5976E+01
     -8.517  0.3682E+00  0.6064E+01
     -8.397  0.6444E+00  0.6152E+01
     -8.278  0.4710E+00  0.6220E+01
     -8.158  0.4899E-05  0.6230E+01
     -8.038  0.4694E+00  0.6319E+01
     -7.919  0.5321E+00  0.6425E+01
     -7.799  0.6023E-01  0.6457E+01
     -7.679  0.3683E+00  0.6505E+01
     -7.560  0.7727E+00  0.6598E+01
     -7.440  0.5523E+00  0.6670E+01
     -7.320  0.2605E+00  0.6702E+01
     -7.201  0.4544E+00  0.6769E+01
     -7.081  0.2053E+00  0.6805E+01
     -6.961  0.3919E+00  0.6894E+01
     -6.841  0.3682E+00  0.6968E+01
     -6.722  0.1950E+00  0.6991E+01
     -6.602  0.1757E+00  0.7055E+01
     -6.482  0.5439E+00  0.7121E+01
     -6.363  0.3676E+00  0.7188E+01
     -6.243  0.3682E+00  0.7236E+01
     -6.123  0.7744E-01  0.7245E+01
     -6.004  0.9206E-01  0.7269E+01
     -5.884  0.4471E+00  0.7323E+01
     -5.764  0.2074E+00  0.7371E+01
     -5.645  0.1841E+00  0.7412E+01
     -5.525  0.2762E+00  0.7445E+01
     -5.405  0.1841E+00  0.7467E+01
     -5.285  0.3975E+00  0.7515E+01
     -5.166  0.6498E+00  0.7644E+01
     -5.046  0.6355E-09  0.7666E+01
     -4.926  0.9206E-01  0.7677E+01
     -4.807  0.1850E+00  0.7699E+01
     -4.687  0.4022E+00  0.7769E+01
     -4.567  0.9206E-01  0.7809E+01
     -4.448  0.1088E-11  0.7809E+01
     -4.328  0.1841E+00  0.7831E+01
     -4.208  0.1840E+00  0.7853E+01
     -4.089  0.1842E+00  0.7875E+01
     -3.969  0.9206E-01  0.7908E+01
     -3.849  0.0000E+00  0.7908E+01
     -3.729  0.1476E+00  0.7926E+01
     -3.610  0.0000E+00  0.7930E+01
     -3.490  0.1841E+00  0.7952E+01
     -3.370  0.9206E-01  0.7963E+01
     -3.251  0.9187E-01  0.7974E+01
     -3.131  0.0000E+00  0.7974E+01
     -3.011  0.0000E+00  0.7974E+01
     -2.892  0.1841E+00  0.7996E+01
     -2.772  0.0000E+00  0.7996E+01
     -2.652  0.0000E+00  0.7996E+01
     -2.532  0.0000E+00  0.7996E+01
     -2.413  0.0000E+00  0.7996E+01
     -2.293  0.6137E-01  0.8004E+01
     -2.173  0.0000E+00  0.8004E+01
     -2.054  0.0000E+00  0.8004E+01
     -1.934  0.0000E+00  0.8004E+01
     -1.814  0.0000E+00  0.8004E+01
     -1.695  0.1841E+00  0.8026E+01
     -1.575  0.0000E+00  0.8026E+01
     -1.455  0.3531E-05  0.8026E+01
     -1.336  0.0000E+00  0.8037E+01
     -1.216  0.6860E-01  0.8045E+01
     -1.096  0.1841E+00  0.8070E+01
     -0.976  0.1841E+00  0.8092E+01
     -0.857  0.3349E-09  0.8092E+01
     -0.737  0.9206E-01  0.8103E+01
     -0.617  0.1754E+00  0.8124E+01
     -0.498  0.1841E+00  0.8191E+01
     -0.378  0.6674E-14  0.8202E+01
     -0.258  0.4920E+00  0.8261E+01
     -0.139  0.2768E+00  0.8323E+01
     -0.019  0.3809E+00  0.8391E+01
      0.101  0.1841E+00  0.8444E+01
      0.220  0.2769E+00  0.8478E+01
      0.340  0.4916E-14  0.8500E+01
      0.460  0.5428E+00  0.8565E+01
      0.580  0.3265E-01  0.8570E+01
      0.699  0.3682E+00  0.8632E+01
      0.819  0.2762E+00  0.8665E+01
      0.939  0.1154E+00  0.8679E+01
      1.058  0.1393E-11  0.8687E+01
      1.178  0.5391E+00  0.8751E+01
      1.298  0.1276E+00  0.8781E+01
      1.417  0.2775E+00  0.8843E+01
      1.537  0.4438E-01  0.8881E+01
      1.657  0.1373E+00  0.8948E+01
      1.776  0.3683E+00  0.8997E+01
      1.896  0.2607E-05  0.9019E+01
      2.016  0.5540E+00  0.9119E+01
      2.136  0.5543E+00  0.9198E+01
      2.255  0.2452E+00  0.9238E+01
      2.375  0.2795E+00  0.9319E+01
      2.495  0.7555E+00  0.9420E+01
      2.614  0.5285E+00  0.9505E+01
      2.734  0.4294E+00  0.9614E+01
      2.854  0.7472E+00  0.9729E+01
      2.973  0.4599E+00  0.9827E+01
      3.093  0.4584E+00  0.9926E+01
      3.213  0.6441E+00  0.1004E+02
      3.332  0.4520E+00  0.1010E+02
      3.452  0.5512E+00  0.1022E+02
      3.572  0.6841E+00  0.1035E+02
      3.692  0.1776E+00  0.1042E+02
      3.811  0.7093E-04  0.1049E+02
      3.931  0.9783E+00  0.1065E+02
      4.051  0.5562E+00  0.1074E+02
      4.170  0.2761E+00  0.1080E+02
      4.290  0.9714E+00  0.1094E+02
      4.410  0.4893E+00  0.1104E+02
      4.529  0.7359E+00  0.1118E+02
      4.649  0.8072E+00  0.1128E+02
      4.769  0.8752E+00  0.1141E+02
      4.888  0.5522E+00  0.1149E+02
      5.008  0.1285E+01  0.1165E+02
      5.128  0.5097E+00  0.1173E+02
      5.248  0.8751E+00  0.1191E+02
      5.367  0.8519E+00  0.1206E+02
      5.487  0.5449E+00  0.1218E+02
      5.607  0.1473E+01  0.1235E+02
      5.726  0.8288E+00  0.1245E+02
      5.846  0.1544E+01  0.1275E+02
      5.966  0.9479E+00  0.1289E+02
      6.085  0.1217E+01  0.1308E+02
      6.205  0.1105E+01  0.1326E+02
      6.325  0.1201E+01  0.1350E+02
      6.445  0.1478E+01  0.1374E+02
      6.564  0.7088E+00  0.1392E+02
      6.684  0.1019E+01  0.1414E+02
      6.804  0.7935E+00  0.1434E+02
      6.923  0.1980E+01  0.1462E+02
      7.043  0.2631E+01  0.1498E+02
      7.163  0.1863E+01  0.1526E+02
      7.282  0.8723E+00  0.1545E+02
      7.402  0.1105E+01  0.1564E+02
      7.522  0.1338E+01  0.1588E+02
      7.641  0.1933E+01  0.1615E+02
      7.761  0.8329E+00  0.1633E+02
      7.881  0.8596E+00  0.1651E+02
      8.001  0.1517E+01  0.1674E+02
      8.120  0.9019E+00  0.1687E+02
      8.240  0.1049E+01  0.1708E+02
      8.360  0.1674E+01  0.1734E+02
      8.479  0.1928E+01  0.1760E+02
      8.599  0.5878E+00  0.1775E+02
      8.719  0.1264E+01  0.1797E+02
      8.838  0.1189E+01  0.1821E+02
      8.958  0.1640E+01  0.1843E+02
      9.078  0.1423E+01  0.1870E+02
      9.197  0.2632E+01  0.1906E+02
      9.317  0.1725E+01  0.1932E+02
      9.437  0.7995E+00  0.1946E+02
      9.557  0.9490E+00  0.1963E+02
      9.676  0.1765E+01  0.1989E+02
      9.796  0.1593E+01  0.2013E+02
      9.916  0.1750E+01  0.2041E+02
     10.035  0.1823E+01  0.2069E+02
     10.155  0.1040E+01  0.2090E+02
     10.275  0.1113E+01  0.2113E+02
     10.394  0.1082E+01  0.2137E+02
     10.514  0.1078E+01  0.2152E+02
     10.634  0.2321E+01  0.2190E+02
     10.753  0.1835E+01  0.2217E+02
     10.873  0.7170E+00  0.2236E+02
     10.993  0.1564E+01  0.2270E+02
     11.113  0.1048E+01  0.2292E+02
     11.232  0.5495E+00  0.2303E+02
     11.352  0.1261E+01  0.2324E+02
     11.472  0.2424E+01  0.2361E+02
     11.591  0.1228E+01  0.2380E+02
     11.711  0.1062E+01  0.2409E+02
     11.831  0.2208E+01  0.2445E+02
     11.950  0.1805E+01  0.2481E+02
     12.070  0.1257E+01  0.2506E+02
     12.190  0.2293E+01  0.2544E+02
     12.309  0.1185E+01  0.2568E+02
     12.429  0.1778E+01  0.2595E+02
     12.549  0.9620E+00  0.2619E+02
     12.669  0.6847E+00  0.2634E+02
     12.788  0.1619E+01  0.2662E+02
     12.908  0.1012E+01  0.2684E+02
     13.028  0.3900E+00  0.2691E+02
     13.147  0.1146E+01  0.2715E+02
     13.267  0.1636E+01  0.2748E+02
     13.387  0.1151E+01  0.2764E+02
     13.506  0.4463E+00  0.2778E+02
     13.626  0.1474E+01  0.2799E+02
     13.746  0.1261E+01  0.2816E+02
     13.865  0.1257E+01  0.2843E+02
     13.985  0.1462E+01  0.2866E+02
     14.105  0.1669E+01  0.2892E+02
     14.225  0.1833E+01  0.2917E+02
     14.344  0.1464E+01  0.2945E+02
     14.464  0.1675E+01  0.2968E+02
     14.584  0.1211E+01  0.2996E+02
     14.703  0.2181E+01  0.3033E+02
     14.823  0.2202E+01  0.3068E+02
     14.943  0.1275E+01  0.3092E+02
     15.062  0.1542E+01  0.3117E+02
     15.182  0.3060E+01  0.3162E+02
     15.302  0.1125E+01  0.3187E+02
     15.422  0.1561E+01  0.3215E+02
     15.541  0.1013E+01  0.3238E+02
     15.661  0.1745E+01  0.3270E+02
     15.781  0.1932E+01  0.3306E+02
     15.900  0.9531E+00  0.3325E+02
     16.020  0.1311E+01  0.3345E+02
     16.140  0.6146E+00  0.3362E+02
     16.259  0.1295E+01  0.3385E+02
     16.379  0.1874E+01  0.3416E+02
     16.499  0.1617E+01  0.3452E+02
     16.618  0.1572E+01  0.3479E+02
     16.738  0.1492E+01  0.3510E+02
     16.858  0.1937E+01  0.3542E+02
     16.978  0.1013E+01  0.3560E+02
     17.097  0.5765E+00  0.3578E+02
     17.217  0.1131E+01  0.3603E+02
     17.337  0.1561E+01  0.3635E+02
     17.456  0.1365E+01  0.3661E+02
     17.576  0.2870E+01  0.3707E+02
     17.696  0.1568E+01  0.3732E+02
     17.815  0.1761E+01  0.3758E+02
     17.935  0.1603E+01  0.3795E+02
     18.055  0.1993E+01  0.3828E+02
     18.174  0.1186E+01  0.3847E+02
     18.294  0.1753E+01  0.3869E+02
     18.414  0.1904E+01  0.3902E+02
     18.534  0.1037E+01  0.3930E+02
     18.653  0.7543E+00  0.3946E+02
     18.773  0.1084E+01  0.3963E+02
     18.893  0.1258E+01  0.3985E+02
     19.012  0.1245E+01  0.4015E+02
     19.132  0.2211E+01  0.4054E+02
     19.252  0.2742E+01  0.4094E+02
     19.371  0.2107E+01  0.4124E+02
     19.491  0.1397E+01  0.4156E+02
     19.611  0.2115E+01  0.4187E+02
     19.730  0.1259E+01  0.4208E+02
     19.850  0.1747E+01  0.4237E+02
     19.970  0.1589E+01  0.4265E+02
     20.090  0.1498E+01  0.4299E+02
     20.209  0.5068E+00  0.4325E+02
     20.329  0.2386E+01  0.4369E+02
     20.449  0.1900E+01  0.4402E+02
     20.568  0.3174E+01  0.4450E+02
     20.688  0.1437E+01  0.4483E+02
     20.808  0.7935E+00  0.4502E+02
     20.927  0.1795E+01  0.4528E+02
     21.047  0.1689E+01  0.4562E+02
     21.167  0.1354E+01  0.4582E+02
     21.286  0.2341E+01  0.4623E+02
     21.406  0.1173E+01  0.4644E+02
     21.526  0.1808E+01  0.4670E+02
     21.646  0.1626E+01  0.4695E+02
     21.765  0.2048E+01  0.4730E+02
     21.885  0.1952E+01  0.4767E+02
     22.005  0.1756E+01  0.4811E+02
     22.124  0.1743E+01  0.4842E+02
     22.244  0.1472E+01  0.4876E+02
     22.364  0.2608E+01  0.4916E+02
     22.483  0.2714E+01  0.4958E+02
     22.603  0.1311E+01  0.4984E+02
     22.723  0.2518E+01  0.5021E+02
     22.843  0.1996E+01  0.5061E+02
     22.962  0.1639E+01  0.5092E+02
     23.082  0.2436E+01  0.5134E+02
     23.202  0.1444E+01  0.5170E+02
     23.321  0.2151E+01  0.5200E+02
     23.441  0.1472E+01  0.5228E+02
     23.561  0.1903E+01  0.5256E+02
     23.680  0.1467E+01  0.5291E+02
     23.800  0.2314E+01  0.5328E+02
     23.920  0.1527E+01  0.5355E+02
     24.039  0.2059E+01  0.5390E+02
     24.159  0.2103E+01  0.5425E+02
     24.279  0.3050E+01  0.5470E+02
     24.399  0.2239E+01  0.5506E+02
     24.518  0.2719E+01  0.5547E+02
     24.638  0.2208E+01  0.5596E+02
     24.758  0.3461E+01  0.5642E+02
     24.877  0.2082E+01  0.5678E+02
     24.997  0.1207E+01  0.5700E+02
     25.117  0.1548E+01  0.5739E+02
     25.236  0.1054E+01  0.5758E+02
     25.356  0.1747E+01  0.5800E+02
     25.476  0.2024E+01  0.5837E+02
     25.595  0.2961E+01  0.5899E+02
     25.715  0.1377E+01  0.5933E+02
     25.835  0.1326E+01  0.5962E+02
     25.955  0.1915E+01  0.5992E+02
     26.074  0.2488E+01  0.6038E+02
     26.194  0.1375E+01  0.6060E+02
     26.314  0.2163E+01  0.6092E+02
     26.433  0.1754E+01  0.6122E+02
     26.553  0.1854E+01  0.6152E+02
     26.673  0.1974E+01  0.6179E+02
     26.792  0.1430E+01  0.6209E+02
     26.912  0.1800E+01  0.6240E+02
     27.032  0.1338E+01  0.6263E+02
     27.151  0.1515E+01  0.6287E+02
     27.271  0.2196E+01  0.6324E+02
     27.391  0.1526E+01  0.6352E+02
     27.511  0.2341E+01  0.6395E+02
     27.630  0.3312E+01  0.6443E+02
     27.750  0.3107E+01  0.6488E+02
     27.870  0.9287E+00  0.6515E+02
     27.989  0.1708E+01  0.6545E+02
     28.109  0.2134E+01  0.6580E+02
     28.229  0.1243E+01  0.6607E+02
     28.348  0.2347E+01  0.6641E+02
     28.468  0.2108E+01  0.6681E+02
     28.588  0.2209E+01  0.6714E+02
     28.707  0.1692E+01  0.6739E+02
     28.827  0.2472E+01  0.6783E+02
     28.947  0.1243E+01  0.6813E+02
     29.067  0.2007E+01  0.6842E+02
     29.186  0.1295E+01  0.6871E+02
     29.306  0.1708E+01  0.6899E+02
     29.426  0.1777E+01  0.6933E+02
     29.545  0.2816E+01  0.6988E+02
     29.665  0.1189E+01  0.7014E+02
     29.785  0.1906E+01  0.7048E+02
     29.904  0.2661E+01  0.7083E+02
     30.024  0.1942E+01  0.7118E+02
     30.144  0.1207E+01  0.7140E+02
     30.263  0.2118E+01  0.7179E+02
     30.383  0.2146E+01  0.7213E+02
     30.503  0.1729E+01  0.7247E+02
     30.623  0.1932E+01  0.7282E+02
     30.742  0.2480E+01  0.7319E+02
     30.862  0.2186E+01  0.7353E+02
     30.982  0.2343E+01  0.7392E+02
     31.101  0.1447E+01  0.7426E+02
     31.221  0.1642E+01  0.7473E+02
     31.341  0.1866E+01  0.7505E+02
     31.460  0.2535E+01  0.7541E+02
     31.580  0.1404E+01  0.7571E+02
     31.700  0.2889E+01  0.7615E+02
     31.820  0.1853E+01  0.7651E+02
     31.939  0.1032E+01  0.7683E+02
     32.059  0.2469E+01  0.7723E+02
     32.179  0.1492E+01  0.7751E+02
     32.298  0.1642E+01  0.7776E+02
     32.418  0.1258E+01  0.7811E+02
     32.538  0.2280E+01  0.7849E+02
     32.657  0.2543E+01  0.7901E+02
     32.777  0.1680E+01  0.7945E+02
     32.897  0.2534E+01  0.7997E+02
     33.016  0.2632E+01  0.8045E+02
     33.136  0.2268E+01  0.8081E+02
     33.256  0.2366E+01  0.8120E+02
     33.376  0.1870E+01  0.8166E+02
     33.495  0.1702E+01  0.8199E+02
     33.615  0.2017E+01  0.8233E+02
     33.735  0.1725E+01  0.8258E+02
     33.854  0.1554E+01  0.8287E+02
     33.974  0.2511E+01  0.8330E+02
     34.094  0.8280E+00  0.8361E+02
     34.213  0.1188E+01  0.8388E+02
     34.333  0.2014E+01  0.8428E+02
     34.453  0.1240E+01  0.8456E+02
     34.572  0.1250E+01  0.8488E+02
     34.692  0.1703E+01  0.8513E+02
     34.812  0.1815E+01  0.8545E+02
     34.932  0.2384E+01  0.8593E+02
     35.051  0.1468E+01  0.8623E+02
     35.171  0.1605E+01  0.8653E+02
     35.291  0.1640E+01  0.8683E+02
     35.410  0.3172E+01  0.8740E+02
     35.530  0.1893E+01  0.8781E+02
     35.650  0.3151E+01  0.8832E+02
