   2   2   0   0
  0.3953030E+02  0.2467000E-09  0.2467000E-09  0.1500000E-08  0.5000000E-15
  1.000000000000000E-004
  CAR 
 Dielectric                              
     84.03622107    -26.79499160 4000     -2.25309626      1.00000000
    -26.795  0.0000E+00  0.0000E+00
    -26.767  0.0000E+00  0.0000E+00
    -26.740  0.0000E+00  0.0000E+00
    -26.712  0.0000E+00  0.0000E+00
    -26.684  0.0000E+00  0.0000E+00
    -26.656  0.0000E+00  0.0000E+00
    -26.629  0.0000E+00  0.0000E+00
    -26.601  0.0000E+00  0.0000E+00
    -26.573  0.0000E+00  0.0000E+00
    -26.546  0.0000E+00  0.0000E+00
    -26.518  0.0000E+00  0.0000E+00
    -26.490  0.0000E+00  0.0000E+00
    -26.462  0.0000E+00  0.0000E+00
    -26.435  0.0000E+00  0.0000E+00
    -26.407  0.0000E+00  0.0000E+00
    -26.379  0.0000E+00  0.0000E+00
    -26.352  0.0000E+00  0.0000E+00
    -26.324  0.0000E+00  0.0000E+00
    -26.296  0.0000E+00  0.0000E+00
    -26.268  0.0000E+00  0.0000E+00
    -26.241  0.0000E+00  0.0000E+00
    -26.213  0.0000E+00  0.0000E+00
    -26.185  0.0000E+00  0.0000E+00
    -26.158  0.0000E+00  0.0000E+00
    -26.130  0.0000E+00  0.0000E+00
    -26.102  0.0000E+00  0.0000E+00
    -26.074  0.0000E+00  0.0000E+00
    -26.047  0.0000E+00  0.0000E+00
    -26.019  0.0000E+00  0.0000E+00
    -25.991  0.0000E+00  0.0000E+00
    -25.964  0.0000E+00  0.0000E+00
    -25.936  0.0000E+00  0.0000E+00
    -25.908  0.0000E+00  0.0000E+00
    -25.880  0.0000E+00  0.0000E+00
    -25.853  0.0000E+00  0.0000E+00
    -25.825  0.0000E+00  0.0000E+00
    -25.797  0.0000E+00  0.0000E+00
    -25.770  0.0000E+00  0.0000E+00
    -25.742  0.0000E+00  0.0000E+00
    -25.714  0.0000E+00  0.0000E+00
    -25.686  0.0000E+00  0.0000E+00
    -25.659  0.0000E+00  0.0000E+00
    -25.631  0.0000E+00  0.0000E+00
    -25.603  0.0000E+00  0.0000E+00
    -25.576  0.0000E+00  0.0000E+00
    -25.548  0.0000E+00  0.0000E+00
    -25.520  0.0000E+00  0.0000E+00
    -25.492  0.0000E+00  0.0000E+00
    -25.465  0.0000E+00  0.0000E+00
    -25.437  0.0000E+00  0.0000E+00
    -25.409  0.0000E+00  0.0000E+00
    -25.382  0.0000E+00  0.0000E+00
    -25.354  0.0000E+00  0.0000E+00
    -25.326  0.0000E+00  0.0000E+00
    -25.298  0.0000E+00  0.0000E+00
    -25.271  0.0000E+00  0.0000E+00
    -25.243  0.0000E+00  0.0000E+00
    -25.215  0.0000E+00  0.0000E+00
    -25.188  0.0000E+00  0.0000E+00
    -25.160  0.0000E+00  0.0000E+00
    -25.132  0.0000E+00  0.0000E+00
    -25.104  0.0000E+00  0.0000E+00
    -25.077  0.0000E+00  0.0000E+00
    -25.049  0.0000E+00  0.0000E+00
    -25.021  0.0000E+00  0.0000E+00
    -24.994  0.0000E+00  0.0000E+00
    -24.966  0.0000E+00  0.0000E+00
    -24.938  0.0000E+00  0.0000E+00
    -24.910  0.0000E+00  0.0000E+00
    -24.883  0.0000E+00  0.0000E+00
    -24.855  0.0000E+00  0.0000E+00
    -24.827  0.0000E+00  0.0000E+00
    -24.800  0.0000E+00  0.0000E+00
    -24.772  0.0000E+00  0.0000E+00
    -24.744  0.0000E+00  0.0000E+00
    -24.716  0.0000E+00  0.0000E+00
    -24.689  0.0000E+00  0.0000E+00
    -24.661  0.0000E+00  0.0000E+00
    -24.633  0.0000E+00  0.0000E+00
    -24.606  0.0000E+00  0.0000E+00
    -24.578  0.0000E+00  0.0000E+00
    -24.550  0.0000E+00  0.0000E+00
    -24.522  0.0000E+00  0.0000E+00
    -24.495  0.0000E+00  0.0000E+00
    -24.467  0.0000E+00  0.0000E+00
    -24.439  0.0000E+00  0.0000E+00
    -24.412  0.0000E+00  0.0000E+00
    -24.384  0.0000E+00  0.0000E+00
    -24.356  0.0000E+00  0.0000E+00
    -24.328  0.0000E+00  0.0000E+00
    -24.301  0.0000E+00  0.0000E+00
    -24.273  0.0000E+00  0.0000E+00
    -24.245  0.0000E+00  0.0000E+00
    -24.218  0.0000E+00  0.0000E+00
    -24.190  0.0000E+00  0.0000E+00
    -24.162  0.0000E+00  0.0000E+00
    -24.134  0.0000E+00  0.0000E+00
    -24.107  0.0000E+00  0.0000E+00
    -24.079  0.0000E+00  0.0000E+00
    -24.051  0.0000E+00  0.0000E+00
    -24.024  0.0000E+00  0.0000E+00
    -23.996  0.0000E+00  0.0000E+00
    -23.968  0.0000E+00  0.0000E+00
    -23.940  0.0000E+00  0.0000E+00
    -23.913  0.0000E+00  0.0000E+00
    -23.885  0.0000E+00  0.0000E+00
    -23.857  0.0000E+00  0.0000E+00
    -23.830  0.0000E+00  0.0000E+00
    -23.802  0.0000E+00  0.0000E+00
    -23.774  0.0000E+00  0.0000E+00
    -23.746  0.0000E+00  0.0000E+00
    -23.719  0.0000E+00  0.0000E+00
    -23.691  0.0000E+00  0.0000E+00
    -23.663  0.0000E+00  0.0000E+00
    -23.636  0.0000E+00  0.0000E+00
    -23.608  0.0000E+00  0.0000E+00
    -23.580  0.0000E+00  0.0000E+00
    -23.552  0.0000E+00  0.0000E+00
    -23.525  0.0000E+00  0.0000E+00
    -23.497  0.0000E+00  0.0000E+00
    -23.469  0.0000E+00  0.0000E+00
    -23.442  0.0000E+00  0.0000E+00
    -23.414  0.0000E+00  0.0000E+00
    -23.386  0.0000E+00  0.0000E+00
    -23.358  0.0000E+00  0.0000E+00
    -23.331  0.0000E+00  0.0000E+00
    -23.303  0.0000E+00  0.0000E+00
    -23.275  0.0000E+00  0.0000E+00
    -23.248  0.0000E+00  0.0000E+00
    -23.220  0.0000E+00  0.0000E+00
    -23.192  0.0000E+00  0.0000E+00
    -23.164  0.0000E+00  0.0000E+00
    -23.137  0.0000E+00  0.0000E+00
    -23.109  0.0000E+00  0.0000E+00
    -23.081  0.0000E+00  0.0000E+00
    -23.054  0.0000E+00  0.0000E+00
    -23.026  0.0000E+00  0.0000E+00
    -22.998  0.0000E+00  0.0000E+00
    -22.970  0.0000E+00  0.0000E+00
    -22.943  0.0000E+00  0.0000E+00
    -22.915  0.0000E+00  0.0000E+00
    -22.887  0.0000E+00  0.0000E+00
    -22.859  0.0000E+00  0.0000E+00
    -22.832  0.0000E+00  0.0000E+00
    -22.804  0.0000E+00  0.0000E+00
    -22.776  0.0000E+00  0.0000E+00
    -22.749  0.0000E+00  0.0000E+00
    -22.721  0.0000E+00  0.0000E+00
    -22.693  0.0000E+00  0.0000E+00
    -22.665  0.0000E+00  0.0000E+00
    -22.638  0.0000E+00  0.0000E+00
    -22.610  0.0000E+00  0.0000E+00
    -22.582  0.0000E+00  0.0000E+00
    -22.555  0.0000E+00  0.0000E+00
    -22.527  0.0000E+00  0.0000E+00
    -22.499  0.0000E+00  0.0000E+00
    -22.471  0.0000E+00  0.0000E+00
    -22.444  0.0000E+00  0.0000E+00
    -22.416  0.0000E+00  0.0000E+00
    -22.388  0.0000E+00  0.0000E+00
    -22.361  0.0000E+00  0.0000E+00
    -22.333  0.0000E+00  0.0000E+00
    -22.305  0.0000E+00  0.0000E+00
    -22.277  0.0000E+00  0.0000E+00
    -22.250  0.0000E+00  0.0000E+00
    -22.222  0.0000E+00  0.0000E+00
    -22.194  0.0000E+00  0.0000E+00
    -22.167  0.0000E+00  0.0000E+00
    -22.139  0.0000E+00  0.0000E+00
    -22.111  0.0000E+00  0.0000E+00
    -22.083  0.0000E+00  0.0000E+00
    -22.056  0.0000E+00  0.0000E+00
    -22.028  0.0000E+00  0.0000E+00
    -22.000  0.0000E+00  0.0000E+00
    -21.973  0.0000E+00  0.0000E+00
    -21.945  0.0000E+00  0.0000E+00
    -21.917  0.0000E+00  0.0000E+00
    -21.889  0.0000E+00  0.0000E+00
    -21.862  0.0000E+00  0.0000E+00
    -21.834  0.0000E+00  0.0000E+00
    -21.806  0.1226E-12  0.3399E-14
    -21.779  0.8139E-04  0.2256E-05
    -21.751  0.5967E-01  0.1656E-02
    -21.723  0.3879E+00  0.1241E-01
    -21.695  0.1426E+00  0.1636E-01
    -21.668  0.5284E+00  0.3100E-01
    -21.640  0.1404E+00  0.3489E-01
    -21.612  0.1303E+00  0.3850E-01
    -21.585  0.6639E+00  0.5690E-01
    -21.557  0.3064E+00  0.6540E-01
    -21.529  0.9221E-01  0.6795E-01
    -21.501  0.1074E+00  0.7093E-01
    -21.474  0.7651E+00  0.9213E-01
    -21.446  0.3203E+00  0.1010E+00
    -21.418  0.5462E-01  0.1025E+00
    -21.391  0.3421E+00  0.1120E+00
    -21.363  0.7090E-02  0.1122E+00
    -21.335  0.7358E+00  0.1326E+00
    -21.307  0.2476E+00  0.1395E+00
    -21.280  0.6004E+00  0.1561E+00
    -21.252  0.4974E-03  0.1561E+00
    -21.224  0.5023E-01  0.1575E+00
    -21.197  0.3465E+00  0.1671E+00
    -21.169  0.2948E+00  0.1753E+00
    -21.141  0.8423E+00  0.1986E+00
    -21.113  0.5663E-01  0.2002E+00
    -21.086  0.4490E+00  0.2126E+00
    -21.058  0.3461E+00  0.2222E+00
    -21.030  0.1771E-04  0.2222E+00
    -21.003  0.1913E-03  0.2222E+00
    -20.975  0.2970E+00  0.2305E+00
    -20.947  0.8427E+00  0.2538E+00
    -20.919  0.2550E+00  0.2609E+00
    -20.892  0.5927E+00  0.2773E+00
    -20.864  0.4466E-03  0.2773E+00
    -20.836  0.1151E+00  0.2805E+00
    -20.809  0.6784E+00  0.2993E+00
    -20.781  0.1684E-02  0.2994E+00
    -20.753  0.1627E-05  0.2994E+00
    -20.725  0.1172E+00  0.3026E+00
    -20.698  0.1035E+01  0.3313E+00
    -20.670  0.4377E+00  0.3434E+00
    -20.642  0.1439E+00  0.3474E+00
    -20.615  0.6502E+00  0.3654E+00
    -20.587  0.1046E-02  0.3655E+00
    -20.559  0.6978E-05  0.3655E+00
    -20.531  0.2815E+00  0.3733E+00
    -20.504  0.5135E+00  0.3875E+00
    -20.476  0.1578E-03  0.3875E+00
    -20.448  0.1965E+00  0.3930E+00
    -20.421  0.6002E+00  0.4096E+00
    -20.393  0.6981E+00  0.4289E+00
    -20.365  0.4839E+00  0.4423E+00
    -20.337  0.1001E-01  0.4426E+00
    -20.310  0.6231E+00  0.4599E+00
    -20.282  0.1714E+00  0.4646E+00
    -20.254  0.9999E-06  0.4646E+00
    -20.227  0.1185E-07  0.4646E+00
    -20.199  0.4158E-01  0.4658E+00
    -20.171  0.7451E+00  0.4864E+00
    -20.143  0.2483E+00  0.4933E+00
    -20.116  0.8540E+00  0.5170E+00
    -20.088  0.9903E-01  0.5197E+00
    -20.060  0.3855E+00  0.5304E+00
    -20.033  0.4157E+00  0.5419E+00
    -20.005  0.3758E+00  0.5524E+00
    -19.977  0.1613E-01  0.5528E+00
    -19.949  0.5801E+00  0.5689E+00
    -19.922  0.2147E+00  0.5748E+00
    -19.894  0.2319E-05  0.5748E+00
    -19.866  0.0000E+00  0.5748E+00
    -19.839  0.2606E-05  0.5748E+00
    -19.811  0.3668E+00  0.5850E+00
    -19.783  0.1225E+01  0.6189E+00
    -19.755  0.6945E+00  0.6382E+00
    -19.728  0.9969E-01  0.6410E+00
    -19.700  0.1118E-02  0.6410E+00
    -19.672  0.6544E+00  0.6591E+00
    -19.645  0.1397E+00  0.6630E+00
    -19.617  0.1609E+00  0.6675E+00
    -19.589  0.2367E+00  0.6740E+00
    -19.561  0.7503E-01  0.6761E+00
    -19.534  0.7166E+00  0.6960E+00
    -19.506  0.3656E-02  0.6961E+00
    -19.478  0.3022E-05  0.6961E+00
    -19.451  0.1364E+00  0.6998E+00
    -19.423  0.8197E+00  0.7225E+00
    -19.395  0.2785E+00  0.7303E+00
    -19.367  0.9719E+00  0.7572E+00
    -19.340  0.5764E+00  0.7732E+00
    -19.312  0.3179E-03  0.7732E+00
    -19.284  0.9517E-04  0.7732E+00
    -19.257  0.4748E+00  0.7863E+00
    -19.229  0.3203E+00  0.7952E+00
    -19.201  0.3731E-04  0.7952E+00
    -19.173  0.2122E+00  0.8011E+00
    -19.146  0.1854E+00  0.8062E+00
    -19.118  0.1455E+00  0.8103E+00
    -19.090  0.6486E+00  0.8283E+00
    -19.063  0.3262E-01  0.8292E+00
    -19.035  0.7516E+00  0.8500E+00
    -19.007  0.4619E+00  0.8628E+00
    -18.979  0.3452E+00  0.8724E+00
    -18.952  0.1038E-03  0.8724E+00
    -18.924  0.8205E+00  0.8951E+00
    -18.896  0.7697E+00  0.9164E+00
    -18.869  0.6192E-04  0.9164E+00
    -18.841  0.2534E-08  0.9164E+00
    -18.813  0.2351E-01  0.9171E+00
    -18.785  0.7549E+00  0.9380E+00
    -18.758  0.1675E-01  0.9385E+00
    -18.730  0.2294E-06  0.9385E+00
    -18.702  0.6853E-01  0.9404E+00
    -18.675  0.3285E+00  0.9495E+00
    -18.647  0.4900E-01  0.9508E+00
    -18.619  0.1338E+01  0.9879E+00
    -18.591  0.6013E+00  0.1005E+01
    -18.564  0.4663E-01  0.1006E+01
    -18.536  0.7415E+00  0.1026E+01
    -18.508  0.7485E-02  0.1027E+01
    -18.481  0.4127E-05  0.1027E+01
    -18.453  0.2484E+00  0.1034E+01
    -18.425  0.1067E+01  0.1063E+01
    -18.397  0.2754E+00  0.1071E+01
    -18.370  0.6328E-05  0.1071E+01
    -18.342  0.1066E-06  0.1071E+01
    -18.314  0.8769E-01  0.1073E+01
    -18.287  0.7047E+00  0.1093E+01
    -18.259  0.2804E-02  0.1093E+01
    -18.231  0.3035E-10  0.1093E+01
    -18.203  0.3425E-02  0.1093E+01
    -18.176  0.1038E+01  0.1122E+01
    -18.148  0.3573E+00  0.1132E+01
    -18.120  0.1069E+01  0.1161E+01
    -18.093  0.3163E+00  0.1170E+01
    -18.065  0.2700E+00  0.1177E+01
    -18.037  0.5250E+00  0.1192E+01
    -18.009  0.1810E-03  0.1192E+01
    -17.982  0.2122E-08  0.1192E+01
    -17.954  0.2197E-01  0.1193E+01
    -17.926  0.7553E+00  0.1213E+01
    -17.899  0.4885E+00  0.1227E+01
    -17.871  0.3245E+00  0.1236E+01
    -17.843  0.1312E-04  0.1236E+01
    -17.815  0.2158E-06  0.1236E+01
    -17.788  0.1094E+00  0.1239E+01
    -17.760  0.6839E+00  0.1258E+01
    -17.732  0.1496E-01  0.1258E+01
    -17.705  0.5578E+00  0.1274E+01
    -17.677  0.6213E+00  0.1291E+01
    -17.649  0.1302E+00  0.1295E+01
    -17.621  0.1058E+01  0.1324E+01
    -17.594  0.4799E-01  0.1325E+01
    -17.566  0.7441E+00  0.1346E+01
    -17.538  0.5107E+00  0.1360E+01
    -17.511  0.2925E+00  0.1368E+01
    -17.483  0.8241E-05  0.1368E+01
    -17.455  0.2454E-12  0.1368E+01
    -17.427  0.4169E-03  0.1368E+01
    -17.400  0.5878E+00  0.1385E+01
    -17.372  0.2080E+00  0.1390E+01
    -17.344  0.6464E+00  0.1408E+01
    -17.317  0.1478E+00  0.1412E+01
    -17.289  0.5922E-06  0.1412E+01
    -17.261  0.2787E-04  0.1412E+01
    -17.233  0.4401E+00  0.1425E+01
    -17.206  0.1146E+01  0.1456E+01
    -17.178  0.6727E+00  0.1475E+01
    -17.150  0.1263E+00  0.1478E+01
    -17.123  0.2599E-01  0.1479E+01
    -17.095  0.8635E+00  0.1503E+01
    -17.067  0.3032E+00  0.1511E+01
    -17.039  0.1318E+00  0.1515E+01
    -17.012  0.6917E+00  0.1534E+01
    -16.984  0.7540E+00  0.1555E+01
    -16.956  0.1310E-01  0.1556E+01
    -16.929  0.5682E-09  0.1556E+01
    -16.901  0.1162E-08  0.1556E+01
    -16.873  0.1740E-01  0.1556E+01
    -16.845  0.7551E+00  0.1577E+01
    -16.818  0.3206E+00  0.1586E+01
    -16.790  0.4972E+00  0.1600E+01
    -16.762  0.1266E-03  0.1600E+01
    -16.735  0.9480E-02  0.1600E+01
    -16.707  0.7827E+00  0.1622E+01
    -16.679  0.1195E+01  0.1655E+01
    -16.651  0.4241E+00  0.1666E+01
    -16.624  0.4103E+00  0.1678E+01
    -16.596  0.3578E+00  0.1688E+01
    -16.568  0.6035E+00  0.1704E+01
    -16.541  0.9833E+00  0.1732E+01
    -16.513  0.8928E-01  0.1734E+01
    -16.485  0.3535E+00  0.1744E+01
    -16.457  0.7462E+00  0.1765E+01
    -16.430  0.8930E-02  0.1765E+01
    -16.402  0.1024E+00  0.1768E+01
    -16.374  0.1077E+01  0.1798E+01
    -16.347  0.1304E-01  0.1798E+01
    -16.319  0.5076E-09  0.1798E+01
    -16.291  0.0000E+00  0.1798E+01
    -16.263  0.0000E+00  0.1798E+01
    -16.236  0.4188E-06  0.1798E+01
    -16.208  0.1336E+00  0.1802E+01
    -16.180  0.9337E+00  0.1828E+01
    -16.153  0.9254E+00  0.1853E+01
    -16.125  0.7480E+00  0.1874E+01
    -16.097  0.8043E+00  0.1896E+01
    -16.069  0.3331E-01  0.1897E+01
    -16.042  0.6433E-08  0.1897E+01
    -16.014  0.0000E+00  0.1897E+01
    -15.986  0.0000E+00  0.1897E+01
    -15.959  0.0000E+00  0.1897E+01
    -15.931  0.0000E+00  0.1897E+01
    -15.903  0.0000E+00  0.1897E+01
    -15.875  0.2766E-07  0.1897E+01
    -15.848  0.3539E-01  0.1898E+01
    -15.820  0.3602E+00  0.1908E+01
    -15.792  0.2007E-02  0.1908E+01
    -15.765  0.1819E-09  0.1908E+01
    -15.737  0.7900E-02  0.1908E+01
    -15.709  0.7752E+00  0.1930E+01
    -15.681  0.1176E+01  0.1962E+01
    -15.654  0.2884E-01  0.1963E+01
    -15.626  0.2565E-08  0.1963E+01
    -15.598  0.0000E+00  0.1963E+01
    -15.571  0.0000E+00  0.1963E+01
    -15.543  0.0000E+00  0.1963E+01
    -15.515  0.4856E-15  0.1963E+01
    -15.487  0.1285E-04  0.1963E+01
    -15.460  0.1868E+00  0.1968E+01
    -15.432  0.2108E+00  0.1974E+01
    -15.404  0.2635E-01  0.1975E+01
    -15.377  0.4633E+00  0.1988E+01
    -15.349  0.5340E+00  0.2003E+01
    -15.321  0.3991E+00  0.2014E+01
    -15.293  0.5649E+00  0.2029E+01
    -15.266  0.3245E-03  0.2029E+01
    -15.238  0.3506E+00  0.2039E+01
    -15.210  0.4445E+00  0.2051E+01
    -15.183  0.2629E-03  0.2051E+01
    -15.155  0.5419E+00  0.2066E+01
    -15.127  0.7351E+00  0.2087E+01
    -15.099  0.7084E+00  0.2106E+01
    -15.072  0.2460E-02  0.2107E+01
    -15.044  0.6566E-05  0.2107E+01
    -15.016  0.2775E+00  0.2114E+01
    -14.989  0.5175E+00  0.2129E+01
    -14.961  0.1643E-03  0.2129E+01
    -14.933  0.3514E-03  0.2129E+01
    -14.905  0.5752E+00  0.2145E+01
    -14.878  0.2231E+00  0.2151E+01
    -14.850  0.3916E+00  0.2162E+01
    -14.822  0.6726E+00  0.2180E+01
    -14.795  0.7945E+00  0.2202E+01
    -14.767  0.7590E+00  0.2223E+01
    -14.739  0.2939E-01  0.2224E+01
    -14.711  0.4585E-08  0.2224E+01
    -14.684  0.4414E-14  0.2224E+01
    -14.656  0.7395E-04  0.2224E+01
    -14.628  0.8807E+00  0.2248E+01
    -14.601  0.1107E+01  0.2279E+01
    -14.573  0.3834E-03  0.2279E+01
    -14.545  0.5360E+00  0.2294E+01
    -14.517  0.1054E+01  0.2323E+01
    -14.490  0.3066E+00  0.2332E+01
    -14.462  0.4889E+00  0.2345E+01
    -14.434  0.1139E-03  0.2345E+01
    -14.407  0.6965E-01  0.2347E+01
    -14.379  0.1458E+01  0.2388E+01
    -14.351  0.6349E-01  0.2389E+01
    -14.323  0.5955E+00  0.2406E+01
    -14.296  0.1992E+00  0.2411E+01
    -14.268  0.1744E-05  0.2411E+01
    -14.240  0.3096E-07  0.2411E+01
    -14.213  0.5819E-01  0.2413E+01
    -14.185  0.8110E+00  0.2435E+01
    -14.157  0.5105E+00  0.2450E+01
    -14.129  0.1004E+01  0.2477E+01
    -14.102  0.4937E+00  0.2491E+01
    -14.074  0.3039E+00  0.2500E+01
    -14.046  0.9746E-05  0.2500E+01
    -14.019  0.5416E-13  0.2500E+01
    -13.991  0.2809E-03  0.2500E+01
    -13.963  0.1010E+01  0.2528E+01
    -13.935  0.5800E+00  0.2544E+01
    -13.908  0.1592E-04  0.2544E+01
    -13.880  0.1666E-03  0.2544E+01
    -13.852  0.5186E+00  0.2558E+01
    -13.824  0.2764E+00  0.2566E+01
    -13.797  0.5348E-02  0.2566E+01
    -13.769  0.8061E+00  0.2588E+01
    -13.741  0.7753E+00  0.2610E+01
    -13.714  0.3907E-02  0.2610E+01
    -13.686  0.5501E+00  0.2625E+01
    -13.658  0.2448E+00  0.2632E+01
    -13.630  0.3900E-05  0.2632E+01
    -13.603  0.9164E-02  0.2632E+01
    -13.575  0.7464E+00  0.2653E+01
    -13.547  0.3994E-01  0.2654E+01
    -13.520  0.5738E+00  0.2670E+01
    -13.492  0.2211E+00  0.2676E+01
    -13.464  0.2599E-05  0.2676E+01
    -13.436  0.4933E-02  0.2676E+01
    -13.409  0.6697E+00  0.2695E+01
    -13.381  0.3615E+00  0.2705E+01
    -13.353  0.5787E+00  0.2721E+01
    -13.326  0.7548E+00  0.2742E+01
    -13.298  0.1586E-01  0.2742E+01
    -13.270  0.1329E-01  0.2742E+01
    -13.242  0.7529E+00  0.2763E+01
    -13.215  0.2905E-01  0.2764E+01
    -13.187  0.4443E-08  0.2764E+01
    -13.159  0.0000E+00  0.2764E+01
    -13.132  0.3803E-09  0.2764E+01
    -13.104  0.1114E-01  0.2764E+01
    -13.076  0.7503E+00  0.2785E+01
    -13.048  0.1247E+00  0.2789E+01
    -13.021  0.1456E+01  0.2829E+01
    -12.993  0.4354E-01  0.2830E+01
    -12.965  0.4066E-01  0.2831E+01
    -12.938  0.7457E+00  0.2852E+01
    -12.910  0.8860E-02  0.2852E+01
    -12.882  0.2175E-09  0.2852E+01
    -12.854  0.5212E-07  0.2852E+01
    -12.827  0.6938E-01  0.2854E+01
    -12.799  0.7340E+00  0.2874E+01
    -12.771  0.1237E+00  0.2878E+01
    -12.744  0.6542E-03  0.2878E+01
    -12.716  0.3945E+00  0.2889E+01
    -12.688  0.4006E+00  0.2900E+01
    -12.660  0.1749E+00  0.2905E+01
    -12.633  0.1044E+01  0.2934E+01
    -12.605  0.7600E+00  0.2955E+01
    -12.577  0.9298E-02  0.2955E+01
    -12.550  0.1720E+00  0.2960E+01
    -12.522  0.5522E+00  0.2975E+01
    -12.494  0.4684E+00  0.2988E+01
    -12.466  0.1195E+00  0.2991E+01
    -12.439  0.2781E+00  0.2999E+01
    -12.411  0.3583E+00  0.3009E+01
    -12.383  0.4369E+00  0.3021E+01
    -12.356  0.7942E-04  0.3021E+01
    -12.328  0.2049E+00  0.3027E+01
    -12.300  0.1927E+00  0.3032E+01
    -12.272  0.4843E+00  0.3046E+01
    -12.245  0.1093E+01  0.3076E+01
    -12.217  0.1464E-01  0.3076E+01
    -12.189  0.6557E+00  0.3094E+01
    -12.162  0.1383E+00  0.3098E+01
    -12.134  0.6985E-01  0.3100E+01
    -12.106  0.1077E+01  0.3130E+01
    -12.078  0.1237E+01  0.3164E+01
    -12.051  0.1420E-02  0.3164E+01
    -12.023  0.1847E-11  0.3164E+01
    -11.995  0.0000E+00  0.3164E+01
    -11.968  0.0000E+00  0.3164E+01
    -11.940  0.0000E+00  0.3164E+01
    -11.912  0.1324E-07  0.3164E+01
    -11.884  0.2758E-01  0.3165E+01
    -11.857  0.4067E+00  0.3176E+01
    -11.829  0.1441E+01  0.3216E+01
    -11.801  0.1722E+00  0.3221E+01
    -11.774  0.7685E+00  0.3242E+01
    -11.746  0.1589E+01  0.3286E+01
    -11.718  0.3664E+00  0.3297E+01
    -11.690  0.2151E-04  0.3297E+01
    -11.663  0.8828E-15  0.3297E+01
    -11.635  0.2412E-04  0.3297E+01
